# All data in this file is centered around the brightness peak.

# FILENAME = J0224-24_R_ss.fits / Image file name
# PIXSIZE =      0.431939 / Pixel size [arcsec]
# FLUX_UNITS = erg/cm^2/Angstrom/sec / Flux units
# FLUX_SCALE =    4.6306236e-19 / Flux scale [above units / (DN/sec)]
# FLUXCAL =    1 / Flux calibration complete?
# PROFTYPE = brightness / Profile type (isophote/brightness/other)
# NUMGALS =        2 / Number of sources in image
#
# GALINDEX =        1 / Source index (1 - N)
# XCENTER =       845.939 / X(center) [pixels]
# YCENTER =       964.941 / Y(center) [pixels]
# AXERAT =       1.53759 / Axial ratio (a/b)
# PA_IMAGE =       33.4268 / Position angle, counterclockwise from Up [deg]
# PA =        33.360082 / Position angle, from N towards E [deg]
# SKYLEV =       2.87253 / Sky level [DN/sec]
# ERR_SKY_PIXEL =      0.110127 / Sky RMS (pixel-to-pixel) [DN/sec]
# ERR_SKY_BOX =    0.00500769 / Sky RMS (box-to-box) [DN/sec]
# FLUXRAD_S =       258.216 / Sky aperture radius [pixels]
# FLUXRAD_F =       258.216 / Flux aperture radius [pixels]
# FLUXRAD_C =      -999.000 / Radius where SNR=3 [pixels]
# FLUX_S =        89412.025 / Flux within sky aperture [DN/sec]
# FLUX_F =        89412.025 / Flux within flux aperture [DN/sec]
# FLUX_T =        90730.068 / Total flux [DN/sec]
# ERR_FLUX_S_SKY =       682.204 / Uncertainty in FLUX_S due to sky [DN/sec]
# ERR_FLUX_F_SKY =       682.204 / Uncertainty in FLUX_F due to sky [DN/sec]
# ERR_FLUX_T_SKY =        760.60491 / Uncertainty in FLUX_T due to sky [DN/sec]
# RE_F =        65.534474 / Flux aperture half-light radius [pixels]
# RE_T =        66.553518 / Total flux half-light radius [pixels]
# ERR_RE_F_SKY =       0.42419527 / Uncertainty in RE_F due to sky [pixels]
# ERR_RE_T_SKY =       0.49488427 / Uncertainty in RE_T due to sky [pixels]
# SE_F =        3.3134194 / Face-on surface brightness within RE_F [DN/sec/pixel]
# SE_T =        3.2600880 / Face-on surface brightness within RE_T [DN/sec/pixel]
#  a[pix]  F(interior)     dF       N(good) N(bad) SurfBright  Sigma(SB)    dF(raw)  Sigma(F,sky)
# all Flux and Surface Brightness values are in [DN/sec]
   0.0000      0.00000      0.00000      0      0      0.00000      0.00000      0.00000      0.00000
   4.1184      142.810      142.810     34      0      4.12088     0.263786      140.110     0.173542
   8.2368      607.529      464.719    106      0      4.46994     0.824803      473.813     0.694170
  12.3552      1485.21      877.682    174      0      5.06523      1.56133      881.350      1.56188
  16.4736      2852.96      1367.75    237      0      5.63819      2.21303      1336.25      2.77668
  20.5920      4714.07      1861.11    310      0      5.96709      2.98469      1849.80      4.33856
  24.7104      7036.02      2321.95    391      0      6.09105      4.12676      2381.60      6.24753
  28.8288      10139.1      3103.13    453      0      6.88793      7.03800      3120.23      8.50358
  32.9472      14504.3      4365.18    512      0      8.39737      12.2588      4299.45      11.1067
  37.0656      20554.5      6050.21    589      0      10.2696      20.1848      6048.79      14.0569
  41.1840      25631.4      5076.82    656      0      7.71028      11.5787      5057.94      17.3542
  45.3024      29571.8      3940.42    731      0      5.41446      5.78727      3957.97      20.9986
  49.4208      32988.4      3416.67    799      0      4.28655      3.64767      3424.95      24.9901
  53.5392      36157.5      3169.10    868      0      3.65787      2.74183      3175.03      29.3287
  57.6576      39235.3      3077.73    938      0      3.28926      2.40608      3085.33      34.0143
  61.7760      42160.7      2925.44    998      0      2.91089      2.03679      2905.07      39.0470
  65.8944      44874.6      2713.84   1073      0      2.52612      1.73468      2710.53      44.4269
  70.0128      47510.4      2635.84   1143      0      2.30482      1.81287      2634.41      50.1537
  74.1312      50164.3      2653.85   1223      0      2.18797      1.74567      2675.88      56.2277
  78.2496      52851.7      2687.41   1274      0      2.09588      1.57360      2670.15      62.6488
  82.3680      55768.3      2916.68   1347      0      2.15802      1.68304      2906.86      69.4170
  86.4864      58790.8      3022.47   1415      0      2.12721      1.65005      3010.00      76.5322
  90.6048      61776.1      2985.29   1503      0      2.00332      1.41320      3010.98      83.9945
  94.7232      64635.8      2859.66   1563      0      1.83373      1.15758      2866.11      91.8039
  98.8416      67597.1      2961.36   1637      0      1.81813      1.29769      2976.28      99.9604
 102.9600      70626.4      3029.23   1691      0      1.78390      1.84151      3016.57      108.464
 107.0784      73520.7      2894.35   1764      0      1.63762      2.38586      2888.75      117.315
 111.1968      75760.7      2240.00   1830      0      1.21956      1.36811      2231.80      126.512
 115.3152      77422.3      1661.62   1914      0     0.871767     0.682354      1668.56      136.057
 119.4336      78791.1      1368.78   1970      0     0.692934     0.546182      1365.08      145.949
 123.5520      79888.8      1097.70   2054      0     0.536864     0.399623      1102.72      156.188
 127.6704      80789.7      900.864   2099      0     0.426149     0.319455      894.488      166.774
 131.7888      81575.6      785.917   2180      7     0.359971     0.307016      784.737      177.707
 135.9072      82306.6      730.992   2215     44     0.324513     0.303085      718.796      188.988
 140.0256      82978.1      671.499   2270     57     0.289203     0.294400      656.490      200.615
 144.1441      83578.8      600.746   2323     55     0.251231     0.278544      583.610      212.589
 148.2625      84106.4      527.531   2458      8     0.214399     0.258327      526.992      224.911
 152.3808      84596.7      490.368   2520      0     0.193835     0.245019      488.463      237.579
 156.4993      85043.4      446.668   2599      0     0.171853     0.236620      446.645      250.595
 160.6177      85453.5      410.121   2675      0     0.153692     0.229853      411.127      263.958
 164.7361      85830.1      376.613   2752      0     0.137563     0.213089      378.573      277.668
 168.8545      86170.4      340.268   2789     13     0.121218     0.204380      338.078      291.725
 172.9729      86465.9      295.497   2812     52     0.102732     0.195158      288.884      306.129
 177.0913      86751.1      285.203   2885     60    0.0968204     0.187523      279.327      320.880
 181.2097      87009.5      258.399   2989     45    0.0857048     0.180029      256.172      335.978
 185.3281      87234.9      225.404   3065      8    0.0730809     0.171776      223.993      351.423
 189.4465      87456.6      221.735   3095     46    0.0703113     0.171872      217.614      367.216
 193.5649      87660.9      204.239   3163     61    0.0633703     0.161025      200.440      383.355
 197.6833      87848.7      187.788   3244     54    0.0570397     0.149184      185.037      399.842
 201.8017      88019.9      171.282   3361     13    0.0509534     0.139532      171.254      416.675
 205.9201      88180.0      160.020   3426      0    0.0466414     0.139277      159.793      433.856
 210.0385      88309.5      129.554   3508      0    0.0370135     0.122455      129.843      451.384
 214.1569      88427.9      118.433   3570      0    0.0331793     0.117735      118.450      469.259
 218.2753      88549.2      121.289   3633      3    0.0333321     0.117033      121.096      487.481
 222.3937      88654.9      105.619   3618     64    0.0284833     0.114252      103.053      506.050
 226.5121      88755.1      100.258   3691    111    0.0265414     0.111074      97.9643      524.966
 230.6305      88847.0      91.8937   3750    106    0.0238887     0.105316      89.5828      544.229
 234.7489      88947.5      100.513   3839     64    0.0256671     0.105645      98.5360      563.839
 238.8673      89031.6      84.0987   3964      0    0.0211020     0.103817      83.6483      583.797
 242.9857      89115.6      84.0180   4060      0    0.0207214    0.0994912      84.1289      604.101
 247.1041      89198.6      82.9691   4148      0    0.0201187     0.100208      83.4526      624.753
 251.2225      89274.7      76.1319   4206      0    0.0181557    0.0993879      76.3629      645.751
 258.2160      89412.0      137.286   7241      0    0.0188594     0.102675      136.561      682.204
 262.3344      89493.4      81.3761   4384      0    0.0185778     0.100028      81.4449      704.140
 266.6587      89572.5      79.1083   4687      0    0.0169256    0.0961980      79.3303      727.545
 271.1992      89655.8      83.3281   4993      0    0.0166996    0.0966684      83.3813      752.532
 275.9668      89745.0      89.2083   5333      0    0.0167371    0.0988281      89.2589      779.223
 280.9728      89839.8      94.7717   5675     36    0.0166369    0.0955385      94.4145      807.750
 286.2290      89921.7      81.9167   6025     53    0.0134478    0.0925863      81.0230      838.254
 291.7481      90017.2      95.5026   6459     52    0.0146530    0.0938731      94.6440      870.892
 297.5431      90103.9      86.6624   6943     37    0.0124204    0.0942229      86.2349      905.833
 303.6278      90191.3      87.3591   7405     50    0.0116884    0.0928962      86.5529      943.260
 310.0168      90301.6      110.357   7935     83    0.0137766    0.0962201      109.317      983.374
#
# GALINDEX =        2 / Source index (1 - N)
# XCENTER =       1919.20 / X(center) [pixels]
# YCENTER =       1352.88 / Y(center) [pixels]
# AXERAT =       1.44737 / Axial ratio (a/b)
# PA_IMAGE =       44.5640 / Position angle, counterclockwise from Up [deg]
# PA =        44.497281 / Position angle, from N towards E [deg]
# SKYLEV =       2.86733 / Sky level [DN/sec]
# ERR_SKY_PIXEL =     0.0944365 / Sky RMS (pixel-to-pixel) [DN/sec]
# ERR_SKY_BOX =    0.00718909 / Sky RMS (box-to-box) [DN/sec]
# FLUXRAD_S =       74.0950 / Sky aperture radius [pixels]
# FLUXRAD_F =       74.0950 / Flux aperture radius [pixels]
# FLUXRAD_C =      -999.000 / Radius where SNR=3 [pixels]
# FLUX_S =        4879.4526 / Flux within sky aperture [DN/sec]
# FLUX_F =        4879.4526 / Flux within flux aperture [DN/sec]
# ERR_FLUX_S_SKY =       85.6690 / Uncertainty in FLUX_S due to sky [DN/sec]
# ERR_FLUX_F_SKY =       85.6690 / Uncertainty in FLUX_F due to sky [DN/sec]
# RE_F =        10.918003 / Flux aperture half-light radius [pixels]
# ERR_RE_F_SKY =       0.18886886 / Uncertainty in RE_F due to sky [pixels]
# SE_F =        6.5148561 / Face-on surface brightness within RE_F [DN/sec/pixel]
#  a[pix]  F(interior)     dF       N(good) N(bad) SurfBright  Sigma(SB)    dF(raw)  Sigma(F,sky)
# all Flux and Surface Brightness values are in [DN/sec]
   0.0000      0.00000      0.00000      0      0      0.00000      0.00000      0.00000      0.00000
   1.1818      57.6044      57.6044      2      0      19.0027      1.70150      38.0054    0.0217929
   2.3635      224.324      166.719     10      0      18.3326      2.88278      183.326    0.0871715
   3.5453      476.438      252.114     15      0      16.6336      3.68993      249.505     0.196136
   4.7271      784.436      307.998     20      0      14.5147      4.34843      290.295     0.348686
   5.9089      1127.21      342.777     28      0      12.5640      4.27406      351.792     0.544822
   7.0906      1478.44      351.228     31      0      10.5331      4.02662      326.526     0.784544
   8.2724      1807.67      329.227     44      0      8.35433      3.34197      367.590      1.06785
   9.4542      2101.68      294.013     43      0      6.46600      2.37482      278.038      1.39474
  10.6360      2378.32      276.641     53      0      5.36818      1.77315      284.513      1.76522
  11.8177      2619.99      241.664     58      0      4.19583      1.33987      243.358      2.17929
  12.9995      2839.32      219.332     63      0      3.44543      1.07436      217.062      2.63694
  14.1813      3035.26      195.943     71      0      2.81036     0.850367      199.535      3.13817
  15.3631      3205.18      169.917     74      0      2.24211     0.694890      165.916      3.68300
  16.5448      3356.86      151.683     85      0      1.85324     0.559549      157.525      4.27140
  17.7266      3491.08      134.216     87      0      1.52675     0.434241      132.827      4.90340
  18.9084      3611.90      120.824     95      0      1.28574     0.350636      122.145      5.57898
  20.0902      3719.12      107.215     98      0      1.07177     0.284851      105.033      6.29814
  21.2719      3814.17      95.0533    106      0     0.895898     0.226931      94.9652      7.06089
  22.4537      3901.74      87.5718    114      0     0.780770     0.233884      89.0077      7.86723
  23.6355      3982.49      80.7469    118      0     0.682999     0.205419      80.5939      8.71715
  24.8173      4057.55      75.0652    127      0     0.603969     0.165057      76.7040      9.61066
  25.9990      4123.69      66.1370    133      0     0.507382     0.141667      67.4818      10.5478
  27.1808      4182.20      58.5066    132      0     0.428896     0.139234      56.6143      11.5284
  28.3626      4234.20      52.0030    145      0     0.364997     0.111856      52.9246      12.5527
  29.5443      4280.16      45.9606    144      0     0.309421     0.114737      44.5566      13.6205
  30.7261      4321.78      41.6246    158      0     0.269240     0.104990      42.5399      14.7320
  31.9079      4359.95      38.1684    158      0     0.237568    0.0952326      37.5357      15.8870
  33.0897      4396.41      36.4576    170      0     0.218667    0.0998725      37.1735      17.0856
  34.2714      4431.31      34.9032    168      0     0.201999    0.0927192      33.9359      18.3278
  35.4532      4461.66      30.3417    180      0     0.169648    0.0872151      30.5366      19.6136
  36.6350      4491.73      30.0724    188      0     0.162629    0.0965778      30.5743      20.9430
  37.8168      4518.75      27.0218    187      0     0.141492    0.0958274      26.4590      22.3159
  38.9985      4543.54      24.7866    201      0     0.125795    0.0914298      25.2848      23.7324
  40.1803      4569.57      26.0305    201      0     0.128165    0.0917783      25.7611      25.1926
  41.3621      4593.68      24.1157    211      0     0.115295    0.0982915      24.3272      26.6963
  42.5439      4615.88      22.1976    212      0     0.103136     0.106841      21.8647      28.2436
  43.7256      4636.47      20.5853    223      0    0.0930237    0.0920343      20.7443      29.8344
  44.9074      4658.69      22.2240    224      0    0.0977509    0.0923850      21.8962      31.4689
  46.0892      4677.86      19.1714    233      0    0.0821336    0.0887672      19.1371      33.1470
  47.2710      4696.37      18.5134    244      0    0.0773071    0.0869313      18.8629      34.8686
  48.4527      4711.57      15.1953    242      0    0.0618850    0.0893551      14.9762      36.6338
  49.6345      4729.78      18.2142    250      0    0.0723924    0.0963553      18.0981      38.4426
  50.8163      4741.45      11.6664    257      0    0.0452768    0.0842013      11.6361      40.2950
  51.9981      4753.35      11.8973    254      4    0.0451115    0.0903762      11.4583      42.1910
  53.1798      4766.76      13.4116    265      7    0.0497107    0.0852389      13.1733      44.1306
  54.3616      4779.33      12.5733    271      8    0.0455795    0.0864440      12.3521      46.1137
  55.5434      4788.54      9.20247    276     10    0.0326422    0.0814544      9.00925      48.1405
  56.7252      4795.71      7.17592    277     10    0.0249180    0.0824135      6.90230      50.2108
  57.9069      4804.28      8.56786    286     11    0.0291380    0.0808634      8.33348      52.3247
  59.0887      4812.36      8.08074    280     12    0.0269263    0.0878382      7.53936      54.4822
  60.2705      4818.58      6.21618    290     13    0.0203030    0.0871239      5.88787      56.6833
  61.4522      4824.56      5.98774    304     11    0.0191772    0.0839229      5.82987      58.9279
  62.6340      4830.81      6.24988    311     12    0.0196355    0.0952345      6.10664      61.2162
  63.8158      4834.79      3.97234    313     13    0.0122468    0.0801501      3.83325      63.5480
  64.9976      4840.62      5.83135    314     12    0.0176483    0.0843976      5.54156      65.9234
  66.1793      4846.74      6.12656    319     12    0.0182075    0.0848988      5.80821      68.3425
  67.3611      4852.81      6.07089    332     11    0.0177229    0.0876722      5.88400      70.8050
  68.5429      4857.26      4.44395    339      9    0.0127477    0.0814246      4.32146      73.3112
  69.7247      4862.49      5.23405    351      8    0.0147575    0.0871157      5.17987      75.8610
  70.9064      4869.59      7.09938    355      5    0.0196803    0.0829479      6.98652      78.4544
  72.0882      4871.99      2.39936    372      1   0.00654138    0.0900248      2.43339      81.0913
  74.0950      4879.45      7.46137    634      0    0.0117179    0.0874176      7.42912      85.6690
  75.2768      4885.43      5.98102    383      0    0.0156099    0.0863048      5.97858      88.4235
  76.5176      4888.48      3.04280    399      0   0.00744258    0.0847068      2.96959      91.3627
  77.8205      4894.14      5.66808    440      0    0.0129861    0.0885386      5.71389      94.5005
  79.1886      4897.59      3.44531    478      0   0.00738977    0.0922958      3.53231      97.8523
  80.6250      4901.31      3.71592    495      0   0.00745742    0.0832781      3.69142      101.434
  82.1333      4907.10      5.79727    534      0    0.0108800    0.0912961      5.80993      105.265
  83.7170      4913.40      6.29468    563      0    0.0110411    0.0887294      6.21616      109.364
  85.3799      4916.79      3.38965    624      0   0.00555377    0.0939474      3.46555      113.751
  87.1259      4924.73      7.94455    643      0    0.0121519    0.0952316      7.81369      118.451
  88.9592      4933.88      9.15150    699      0    0.0130606    0.0885151      9.12934      123.489
