# All data in this file is centered around the brightness peak.

# FILENAME = J0234-10_R_ss.fits / Image file name
# PIXSIZE =      0.401224 / Pixel size [arcsec]
# FLUX_UNITS = erg/cm^2/Angstrom/sec / Flux units
# FLUX_SCALE =    1.3397640e-18 / Flux scale [above units / (DN/sec)]
# FLUXCAL =    1 / Flux calibration complete?
# PROFTYPE = brightness / Profile type (isophote/brightness/other)
# NUMGALS =        2 / Number of sources in image
#
# GALINDEX =        1 / Source index (1 - N)
# XCENTER =       986.000 / X(center) [pixels]
# YCENTER =       1270.00 / Y(center) [pixels]
# AXERAT =       2.51471 / Axial ratio (a/b)
# PA_IMAGE =       70.1448 / Position angle, counterclockwise from Up [deg]
# PA =        70.039798 / Position angle, from N towards E [deg]
# SKYLEV =       2.46402 / Sky level [DN/sec]
# ERR_SKY_PIXEL =     0.0484228 / Sky RMS (pixel-to-pixel) [DN/sec]
# ERR_SKY_BOX =    0.00228289 / Sky RMS (box-to-box) [DN/sec]
# FLUXRAD_S =       299.095 / Sky aperture radius [pixels]
# FLUXRAD_F =       299.095 / Flux aperture radius [pixels]
# FLUXRAD_C =      -999.000 / Radius where SNR=3 [pixels]
# FLUX_S =        14015.777 / Flux within sky aperture [DN/sec]
# FLUX_F =        14015.777 / Flux within flux aperture [DN/sec]
# ERR_FLUX_S_SKY =       255.131 / Uncertainty in FLUX_S due to sky [DN/sec]
# ERR_FLUX_F_SKY =       255.131 / Uncertainty in FLUX_F due to sky [DN/sec]
# RE_F =        49.390898 / Flux aperture half-light radius [pixels]
# ERR_RE_F_SKY =       0.92594867 / Uncertainty in RE_F due to sky [pixels]
# SE_F =       0.91441525 / Face-on surface brightness within RE_F [DN/sec/pixel]
#  a[pix]  F(interior)     dF       N(good) N(bad) SurfBright  Sigma(SB)    dF(raw)  Sigma(F,sky)
# all Flux and Surface Brightness values are in [DN/sec]
   0.0000      0.00000      0.00000      1      0      10.2848      0.00000      10.2848      0.00000
   4.5925      222.541      222.541     26      0      8.44599      1.20849      219.596    0.0601512
   9.1850      696.509      473.968     80      0      5.99608      1.28351      479.687     0.240605
  13.7775      1287.97      591.457    124      0      4.48945      1.01466      556.692     0.541361
  18.3700      1993.96      705.995    194      0      3.82775     0.829759      742.584     0.962419
  22.9625      2806.19      812.224    234      0      3.42510     0.731617      801.473      1.50378
  27.5550      3637.32      831.134    286      0      2.86760     0.691281      820.133      2.16544
  32.1475      4431.33      794.011    354      0      2.31805     0.628467      820.590      2.94741
  36.7400      5193.33      761.996    384      0      1.92798     0.528035      740.343      3.84968
  41.3325      5919.18      725.857    448      0      1.62047     0.425699      725.972      4.87225
  45.9250      6567.58      648.395    512      0      1.29517     0.346921      663.126      6.01512
  50.5175      7144.01      576.434    544      0      1.04177     0.273477      566.722      7.27829
  55.1100      7680.84      536.832    608      0     0.885831     0.269363      538.585      8.66177
  59.7025      8156.57      475.725    652      0     0.722198     0.245850      470.873      10.1655
  64.2950      8575.04      418.474    726      0     0.588227     0.178269      427.053      11.7896
  68.8875      8966.70      391.652    754      0     0.512558     0.185403      386.469      13.5340
  73.4800      9328.90      362.207    822      0     0.443440     0.172225      364.508      15.3987
  78.0725      9661.60      332.700    876      0     0.382630     0.146332      335.184      17.3837
  82.6650      9954.72      293.120    912      0     0.317846     0.102342      289.876      19.4890
  87.2575      10214.2      259.521    966      0     0.266202    0.0777265      257.151      21.7146
  91.8500      10449.6      235.378   1052      0     0.229056    0.0676019      240.967      24.0605
  96.4425      10666.9      217.233   1056      0     0.201086    0.0615988      212.347      26.5267
 101.0350      10877.4      210.531   1134      0     0.185818    0.0665148      210.717      29.1132
 105.6275      11072.7      195.271   1198      0     0.164689    0.0671611      197.298      31.8200
 110.2200      11265.8      193.108   1232      0     0.155935    0.0690632      192.112      34.6471
 114.8125      11451.8      185.996   1282      0     0.144062    0.0702284      184.687      37.5945
 119.4050      11630.4      178.682   1350      0     0.132969    0.0740279      179.508      40.6622
 123.9975      11794.7      164.210   1400      0     0.117588    0.0621973      164.624      43.8502
 128.5900      11947.8      153.113   1444      0     0.105654    0.0554295      152.565      47.1585
 133.1825      12089.4      141.665   1512      0    0.0943248    0.0525606      142.619      50.5871
 137.7750      12228.5      139.102   1546      0    0.0894796    0.0520820      138.335      54.1361
 142.3675      12361.5      132.931   1612      0    0.0827060    0.0541433      133.322      57.8053
 146.9600      12478.6      117.179   1676      0    0.0705909    0.0503516      118.310      61.5948
 151.5525      12587.7      109.020   1702      0    0.0636550    0.0505549      108.341      65.5046
 156.1450      12687.2      99.4888   1746      0    0.0563559    0.0485167      98.3975      69.5348
 160.7375      12779.5      92.3327   1854      0    0.0507862    0.0494275      94.1577      73.6852
 165.3300      12865.9      86.3754   1874      0    0.0461713    0.0498772      86.5250      77.9559
 169.9225      12949.8      83.9093   1892      0    0.0436243    0.0523648      82.5372      82.3470
 174.5150      13028.6      78.8620   1982      0    0.0399066    0.0493589      79.0950      86.8583
 179.1075      13107.4      78.7791   2034      0    0.0388294    0.0507692      78.9791      91.4900
 183.7000      13181.7      74.2877   2074      0    0.0356885    0.0477517      74.0180      96.2419
 188.2925      13251.9      70.2380   2148      0    0.0329100    0.0467001      70.6907      101.114
 192.8850      13320.6      68.6982   2178      0    0.0314129    0.0483340      68.4173      106.107
 197.4776      13385.8      65.1216   2234      0    0.0290767    0.0465304      64.9573      111.220
 202.0700      13444.8      59.0724   2294      0    0.0257695    0.0479532      59.1153      116.453
 206.6625      13500.8      55.9332   2352      0    0.0238517    0.0474924      56.0993      121.806
 211.2551      13555.5      54.7045   2390      0    0.0228150    0.0471107      54.5279      127.280
 215.8475      13609.2      53.7436   2442      0    0.0219324    0.0462493      53.5588      132.874
 220.4400      13654.8      45.5534   2530      0    0.0181985    0.0463156      46.0422      138.588
 225.0325      13689.4      34.6595   2542      0    0.0135610    0.0461445      34.4721      144.423
 229.6250      13720.4      30.9808   2592      0    0.0118768    0.0467236      30.7846      150.378
 234.2176      13750.5      30.1113   2684      0    0.0113148    0.0456006      30.3690      156.453
 238.8100      13778.7      28.2136   2674      0    0.0103959    0.0450199      27.7986      162.649
 243.4026      13803.1      24.4201   2784      0   0.00882667    0.0470915      24.5735      168.965
 247.9951      13831.3      28.1547   2854      0   0.00998638    0.0475979      28.5011      175.401
 252.5876      13858.8      27.4787   2844      0   0.00956776    0.0466027      27.2107      181.957
 257.1801      13877.1      18.2753   2914      0   0.00624856    0.0443573      18.2083      188.634
 261.7726      13897.2      20.1712   2998      0   0.00677476    0.0457329      20.3107      195.431
 266.3651      13916.4      19.1659   3026      0   0.00632512    0.0456778      19.1398      202.349
 270.9576      13936.3      19.8693   3082      0   0.00644521    0.0452497      19.8641      209.386
 275.5500      13951.2      14.9203   3138      0   0.00475852    0.0448770      14.9322      216.544
 280.1426      13966.2      15.0447   3176      0   0.00471884    0.0466712      14.9870      223.823
 284.7350      13977.3      11.0986   3258      0   0.00342457    0.0437877      11.1572      231.221
 289.3275      13991.6      14.2386   3288      0   0.00432313    0.0451459      14.2144      238.740
 293.9201      14005.2      13.6427   3362      0   0.00407694    0.0452382      13.7067      246.379
 299.0950      14015.8      10.5689   3834      0   0.00275676    0.0461181      10.5694      255.131
 303.6875      14027.6      11.8008   3460      0   0.00341225    0.0459170      11.8064      263.026
 308.5096      14036.5      8.88410   3654      0   0.00240893    0.0459146      8.80224      271.446
 313.5728      14045.1      8.62226   3932      0   0.00219120    0.0460192      8.61581      280.429
 318.8893      14055.1      9.99885   4204      0   0.00238032    0.0452317      10.0069      290.018
 324.4715      14074.0      18.9331   4484      0   0.00421989    0.0477729      18.9220      300.261
 330.3328      14088.2      14.1876   4810      0   0.00295897    0.0485811      14.2326      311.207
 336.4872      14100.3      12.1310   5088      0   0.00236615    0.0457950      12.0390      322.911
 342.9493      14126.1      25.8049   5530      0   0.00470456    0.0516668      26.0162      335.433
 349.7345      14143.5      17.3606   5878      0   0.00295668    0.0506377      17.3794      348.837
 356.8590      14153.5      10.0195   6271     19   0.00159317    0.0460757      9.99076      363.194
 364.3397      14165.3      11.7341   6635     93   0.00174098    0.0460588      11.5514      378.581
#
# GALINDEX =        2 / Source index (1 - N)
# XCENTER =       1662.54 / X(center) [pixels]
# YCENTER =       1135.78 / Y(center) [pixels]
# AXERAT =       2.10835 / Axial ratio (a/b)
# PA_IMAGE =       52.5428 / Position angle, counterclockwise from Up [deg]
# PA =        52.437800 / Position angle, from N towards E [deg]
# SKYLEV =       2.46624 / Sky level [DN/sec]
# ERR_SKY_PIXEL =     0.0464112 / Sky RMS (pixel-to-pixel) [DN/sec]
# ERR_SKY_BOX =     0.0128956 / Sky RMS (box-to-box) [DN/sec]
# FLUXRAD_S =       66.0400 / Sky aperture radius [pixels]
# FLUXRAD_F =       66.0400 / Flux aperture radius [pixels]
# FLUXRAD_C =       71.6983 / Radius where SNR=3 [pixels]
# FLUX_S =        475.97718 / Flux within sky aperture [DN/sec]
# FLUX_F =        475.97718 / Flux within flux aperture [DN/sec]
# ERR_FLUX_S_SKY =       83.8033 / Uncertainty in FLUX_S due to sky [DN/sec]
# ERR_FLUX_F_SKY =       83.8033 / Uncertainty in FLUX_F due to sky [DN/sec]
# RE_F =        16.009895 / Flux aperture half-light radius [pixels]
# ERR_RE_F_SKY =        1.3293406 / Uncertainty in RE_F due to sky [pixels]
# SE_F =       0.29554886 / Face-on surface brightness within RE_F [DN/sec/pixel]
#  a[pix]  F(interior)     dF       N(good) N(bad) SurfBright  Sigma(SB)    dF(raw)  Sigma(F,sky)
# all Flux and Surface Brightness values are in [DN/sec]
   0.0000      0.00000      0.00000      0      0      0.00000      0.00000      0.00000      0.00000
   1.0140      1.48303      1.48303      2      0     0.967941    0.0312820      1.93588    0.0197579
   2.0280      5.55533      4.07230      5      0     0.885968     0.105897      4.42984    0.0790317
   3.0421      12.1911      6.63575      7      0     0.866203    0.0395056      6.06342     0.177821
   4.0561      21.3051      9.11400     11      0     0.849788     0.101463      9.34767     0.316127
   5.0701      32.7424      11.4373     12      0     0.829429     0.104902      9.95315     0.493948
   6.0841      46.5646      13.8223     18      0     0.820136    0.0843477      14.7624     0.711285
   7.0982      61.6404      15.0757     21      0     0.756894     0.107564      15.8948     0.968138
   8.1122      78.3487      16.7083     23      0     0.727012     0.124639      16.7213      1.26451
   9.1262      96.4614      18.1127     26      0     0.695398     0.100614      18.0804      1.60039
  10.1402      115.218      18.7564     28      0     0.644312     0.105583      18.0407      1.97579
  11.1542      134.750      19.5324     31      0     0.607067     0.116878      18.8191      2.39071
  12.1683      156.116      21.3654     35      0     0.606293    0.0996412      21.2202      2.84514
  13.1823      177.596      21.4807     41      0     0.560802     0.120102      22.9929      3.33909
  14.1963      199.157      21.5605     41      0     0.521188     0.116654      21.3687      3.87255
  15.2103      221.017      21.8605     45      0     0.491995     0.132166      22.1398      4.44553
  16.2243      242.260      21.2427     50      0     0.447247     0.112782      22.3624      5.05803
  17.2384      262.011      19.7508     51      0     0.390634     0.113646      19.9223      5.71004
  18.2524      281.215      19.2044     46      0     0.358123     0.112402      16.4737      6.40157
  19.2664      300.277      19.0618     56      0     0.336249     0.104786      18.8299      7.13261
  20.2804      317.012      16.7349     65      0     0.280064    0.0820253      18.2042      7.90317
  21.2945      332.401      15.3887     61      0     0.244973    0.0740096      14.9434      8.71325
  22.3085      346.989      14.5885     68      0     0.221432    0.0628778      15.0574      9.56284
  23.3225      359.657      12.6682     66      0     0.183740    0.0566102      12.1268      10.4519
  24.3365      371.024      11.3667     78      0     0.157847    0.0581794      12.3121      11.3806
  25.3505      382.232      11.2075     69      0     0.149284    0.0473294      10.3006      12.3487
  26.3646      392.393      10.1610     78      0     0.130037    0.0436329      10.1429      13.3564
  27.3786      401.702      9.30910     84      0     0.114639    0.0457082      9.62964      14.4035
  28.3926      408.834      7.13231     83      0    0.0846383    0.0468063      7.02498      15.4902
  29.4066      416.632      7.79838     87      0    0.0892953    0.0480608      7.76869      16.6164
  30.4206      423.186      6.55381     91      0    0.0725007    0.0517014      6.59756      17.7821
  31.4347      429.527      6.34099     91      0    0.0678463    0.0434172      6.17401      18.9874
  32.4487      434.743      5.21600     94      0    0.0540377    0.0422242      5.07954      20.2321
  33.4627      439.499      4.75577    102      0    0.0477536    0.0472422      4.87087      21.5164
  34.4767      444.085      4.58646    104      0    0.0446790    0.0440820      4.64661      22.8402
  35.4908      447.445      3.35908    108      0    0.0317739    0.0451015      3.43158      24.2035
  36.5048      451.027      3.58275    107      0    0.0329350    0.0429075      3.52405      25.6063
  37.5188      453.032      2.00424    116      0    0.0179196    0.0438061      2.07867      27.0486
  38.5328      455.725      2.69308    110      0    0.0234362    0.0537439      2.57798      28.5304
  39.5468      458.219      2.49430    115      0    0.0211426    0.0483582      2.43140      30.0518
  40.5609      460.770      2.55142    127      0    0.0210791    0.0485093      2.67705      31.6127
  41.5749      462.066      1.29551    119      0    0.0104389    0.0492579      1.24223      33.2131
  42.5889      463.947      1.88079    132      0    0.0147898    0.0429726      1.95226      34.8530
  43.6029      464.972      1.02531    129      0   0.00787291    0.0485884      1.01561      36.5324
  44.6169      466.922      1.95031    136      0    0.0146314    0.0428594      1.98986      38.2514
  45.6310      467.719     0.796550    135      0   0.00584148    0.0485259     0.788600      40.0098
  46.6450      469.469      1.75000    136      0    0.0125515    0.0422594      1.70700      41.8078
  47.6590      470.496      1.02714    146      0   0.00720853    0.0454087      1.05245      43.6453
  48.6730      471.708      1.21176    145      0   0.00832509    0.0422680      1.20714      45.5223
  49.6871      472.001     0.293483    143      0   0.00197475    0.0444489     0.282389      47.4388
  50.7011      473.082      1.08131    157      0   0.00712879    0.0442375      1.11922      49.3948
  51.7151      473.371     0.288860    155      0   0.00186666    0.0443205     0.289332      51.3904
  52.7291      473.216    -0.155606    156      0 -0.000986028    0.0417946    -0.153820      53.4254
  53.7431      472.247    -0.968701    155      5  -0.00602143    0.0468088    -0.933321      55.5000
  54.7572      472.437     0.190106    155     10   0.00115961    0.0423821     0.179740      57.6141
  55.7712      471.815    -0.622212    161     11  -0.00372573    0.0438990    -0.599843      59.7677
  56.7852      472.386     0.571076    154     10   0.00335791    0.0516506     0.517119      61.9609
  57.7992      472.775     0.389190    161     17   0.00224793    0.0403907     0.361917      64.1935
  58.8133      473.051     0.275388    158     14   0.00156295    0.0446715     0.246946      66.4657
  59.8273      473.764     0.713636    161     16   0.00398099    0.0464687     0.640940      68.7773
  60.8413      474.728     0.963496    171     15   0.00528450    0.0412494     0.903649      71.1285
  61.8553      474.654   -0.0737711    169     19 -0.000397922    0.0423739   -0.0672489      73.5192
  62.8693      474.644   -0.0100418    169     20 -5.32854e-05    0.0438568  -0.00900522      75.9495
  63.8834      475.416     0.772067    169     18   0.00403130    0.0419877     0.681290      78.4192
  64.8974      475.535     0.119185    179     21  0.000612516    0.0434731     0.109640      80.9285
  66.0400      475.977     0.442028    198     24   0.00198279    0.0440403     0.392593      83.8033
  67.0540      475.286    -0.691408    176     22  -0.00343813    0.0429162    -0.605111      86.3966
  68.1187      476.722      1.43611    194     15   0.00669665    0.0457943      1.29915      89.1621
  69.2367      476.221    -0.500709    204     24  -0.00218830    0.0435540    -0.446412      92.1128
  70.4106      476.031    -0.190237    230     21 -0.000778827    0.0432227    -0.179130      95.2626
  71.6431      476.610     0.579483    238     18   0.00222115    0.0476128     0.528634      98.6270
  72.9373      478.756      2.14567    264     19   0.00769578    0.0442079      2.03169      102.222
  74.2962      479.443     0.686972    296      5   0.00230432    0.0467585     0.682079      106.067
  75.7230      480.034     0.590848    313      0   0.00185247    0.0445575     0.579824      110.180
  77.2212      480.559     0.524761    338      0   0.00153696    0.0454301     0.519492      114.583
  78.7943      480.587    0.0284386    372      0  7.77648e-05    0.0463221    0.0289285      119.299
  80.4460      481.485     0.897933    393      0   0.00229111    0.0443950     0.900407      124.353
