# All data in this file is centered around the brightness peak.

# FILENAME = J1109-23_Rsub_ss.fits / Image file name
# PIXSIZE =      0.432215 / Pixel size [arcsec]
# FLUX_UNITS = erg/cm^2/sec / Flux units
# FLUX_SCALE =    6.7754111e-16 / Flux scale [above units / (DN/sec)]
# FLUXCAL =    1 / Flux calibration complete?
# PROFTYPE = brightness / Profile type (isophote/brightness/other)
# NUMGALS =        1 / Number of sources in image
#
# GALINDEX =        1 / Source index (1 - N)
# XCENTER =       987.555 / X(center) [pixels]
# YCENTER =       1083.82 / Y(center) [pixels]
# AXERAT =       1.10147 / Axial ratio (a/b)
# PA_IMAGE =       73.4479 / Position angle, counterclockwise from Up [deg]
# PA =        73.417466 / Position angle, from N towards E [deg]
# SKYLEV =   0.000200371 / Sky level [DN/sec]
# ERR_SKY_PIXEL =    0.00860599 / Sky RMS (pixel-to-pixel) [DN/sec]
# ERR_SKY_BOX =   0.000239836 / Sky RMS (box-to-box) [DN/sec]
# FLUXRAD_S =       298.552 / Sky aperture radius [pixels]
# FLUXRAD_F =       298.552 / Flux aperture radius [pixels]
# FLUXRAD_C =      -999.000 / Radius where SNR=3 [pixels]
# FLUX_S =        2429.2395 / Flux within sky aperture [DN/sec]
# FLUX_F =        2429.2395 / Flux within flux aperture [DN/sec]
# FLUX_T =        2429.2162 / Total flux [DN/sec]
# ERR_FLUX_S_SKY =       60.9720 / Uncertainty in FLUX_S due to sky [DN/sec]
# ERR_FLUX_F_SKY =       60.9720 / Uncertainty in FLUX_F due to sky [DN/sec]
# ERR_FLUX_T_SKY =        60.983725 / Uncertainty in FLUX_T due to sky [DN/sec]
# ERR_FLUX_S_CONT =        377.33973 / Uncertainty in FLUX_S due to continuum [DN/sec]
# ERR_FLUX_F_CONT =        377.33973 / Uncertainty in FLUX_F due to continuum [DN/sec]
# ERR_FLUX_T_CONT =        377.34429 / Uncertainty in FLUX_T due to continuum [DN/sec]
# RE_F =        65.208732 / Flux aperture half-light radius [pixels]
# RE_T =        65.208122 / Total flux half-light radius [pixels]
# ERR_RE_F_SKY =        1.3665692 / Uncertainty in RE_F due to sky [pixels]
# ERR_RE_T_SKY =        1.3668890 / Uncertainty in RE_T due to sky [pixels]
# ERR_RE_F_CONT =        1.1538375 / Uncertainty in RE_F due to continuum [pixels]
# ERR_RE_T_CONT =        1.1540674 / Uncertainty in RE_T due to continuum [pixels]
# SE_F =      0.090924087 / Face-on surface brightness within RE_F [DN/sec/pixel]
# SE_T =      0.090924916 / Face-on surface brightness within RE_T [DN/sec/pixel]
#  a[pix]  F(interior)     dF       N(good) N(bad) SurfBright  Sigma(SB)    dF(raw)  Sigma(F,sky)  Sigma(F,cntrat)
# all Flux and Surface Brightness values are in [DN/sec]
   0.0000      0.00000      0.00000      0      0      0.00000      0.00000      0.00000      0.00000      0.00000
   2.9938      27.2351      27.2351     26      0      1.06538     0.342856      27.6998   0.00613110      4.47042
   5.9876      70.8699      43.6349     78      0     0.568968     0.271546      44.3795    0.0245244      11.8014
   8.9814      104.918      34.0486    130      0     0.266382     0.252307      34.6296    0.0551799      17.6085
  11.9752      120.331      15.4124    177      0    0.0861288    0.0977850      15.2448    0.0980977      23.0296
  14.9690      134.338      14.0072    227      0    0.0608813    0.0629272      13.8201     0.153278      28.6082
  17.9629      151.846      17.5081    287      0    0.0622617    0.0650857      17.8691     0.220720      34.3179
  20.9567      173.595      21.7485    328      0    0.0654429    0.0549749      21.4653     0.300424      40.2738
  23.9505      208.373      34.7784    382      0    0.0906973    0.0806835      34.6464     0.392391      46.6275
  26.9443      247.919      39.5457    439      0    0.0909968    0.0671942      39.9476     0.496619      53.6094
  29.9381      288.614      40.6954    478      7    0.0837851    0.0807265      40.0493     0.613110      60.9845
  32.9319      330.380      41.7655    513     21    0.0777990    0.0783582      39.9109     0.741863      68.5251
  35.9257      383.922      53.5425    575     16    0.0910640     0.118077      52.3618     0.882879      76.5598
  38.9195      454.664      70.7418    633      3     0.110691     0.153603      70.0673      1.03616      85.0851
  41.9133      552.764      98.0995    694      0     0.142128     0.240097      98.6366      1.20170      94.3377
  44.9071      677.204      124.441    736      0     0.167857     0.352983      123.543      1.37950      104.008
  47.9010      811.064      133.860    797      0     0.168913     0.328881      134.624      1.56956      113.691
  50.8948      912.549      101.485    839      1     0.120299     0.216721      100.931      1.77189      123.226
  53.8886      980.864      68.3154    877     18    0.0763529     0.122995      66.9615      1.98648      132.541
  56.8824      1055.13      74.2686    899     42    0.0785198     0.142574      70.5893      2.21333      141.839
  59.8762      1116.00      60.8694    936     60    0.0610534    0.0882514      57.1460      2.45244      150.932
  62.8700      1168.10      52.0992    951     93    0.0497076    0.0709323      47.2719      2.70382      159.956
  65.8638      1225.29      57.1841    995    109    0.0520215    0.0781361      51.7614      2.96745      168.782
  68.8576      1286.25      60.9595   1035    115    0.0529913    0.0935303      54.8460      3.24335      177.448
  71.8514      1373.28      87.0321   1097     94    0.0724365     0.166193      79.4628      3.53152      186.224
  74.8452      1460.08      86.8016   1179     87    0.0692959     0.159776      81.6998      3.83194      194.683
  77.8390      1516.08      56.0024   1222     82    0.0429549    0.0731454      52.4908      4.14463      202.624
  80.8329      1565.71      49.6304   1309     47    0.0366310    0.0613968      47.9499      4.46957      210.151
  83.8267      1609.36      43.6436   1389     12    0.0310408    0.0492537      43.1157      4.80678      217.218
  86.8205      1652.44      43.0816   1458      0    0.0295660    0.0534641      43.1072      5.15626      224.035
  89.8143      1691.68      39.2426   1504     16    0.0260185    0.0555559      39.1318      5.51799      230.575
  92.8081      1722.32      30.6358   1528     26    0.0196460    0.0374128      30.0192      5.89199      236.873
  95.8019      1763.00      40.6815   1584     31    0.0252599    0.0567404      40.0117      6.27825      243.099
  98.7957      1814.98      51.9829   1608     59    0.0312840    0.0718399      50.3047      6.67677      249.166
 101.7895      1863.24      48.2593   1645     63    0.0281761    0.0552467      46.3498      7.08755      255.094
 104.7833      1906.98      43.7378   1701     60    0.0247961    0.0551030      42.1782      7.51060      261.072
 107.7771      1945.44      38.4637   1734     82    0.0211918    0.0422399      36.7466      7.94591      266.822
 110.7710      1978.97      33.5325   1753    120    0.0179688    0.0356450      31.4993      8.39348      272.390
 113.7648      2011.41      32.4410   1777    124    0.0169203    0.0386559      30.0674      8.85331      277.771
 116.7586      2037.31      25.8917   1858    117    0.0131536    0.0253504      24.4394      9.32541      282.796
 119.7524      2056.68      19.3753   1929     92   0.00959394    0.0246505      18.5067      9.80977      287.602
 122.7462      2077.74      21.0597   2001     80    0.0101705    0.0308807      20.3511      10.3064      292.255
 125.7400      2096.79      19.0470   2009     94   0.00897687    0.0226162      18.0345      10.8153      296.664
 128.7338      2112.84      16.0546   2107     70   0.00738851    0.0162648      15.5676      11.3364      300.814
 131.7276      2127.75      14.9104   2218     19   0.00670419    0.0146535      14.8699      11.8698      304.717
 134.7214      2143.25      15.4995   2272      2   0.00681245    0.0156875      15.4779      12.4155      308.415
 137.7152      2161.51      18.2623   2316      6   0.00785035    0.0203868      18.1814      12.9734      311.951
 140.7090      2182.49      20.9736   2349     25   0.00882195    0.0348954      20.7228      13.5436      315.386
 143.7029      2199.28      16.7950   2387     42   0.00691564    0.0273975      16.5076      14.1261      318.620
 146.6967      2211.17      11.8919   2431     54   0.00479574    0.0173084      11.6584      14.7208      321.660
 149.6905      2226.07      14.8938   2458     68   0.00588502    0.0256330      14.4654      15.3278      324.532
 152.6843      2247.03      20.9650   2473     97   0.00811989    0.0441522      20.0805      15.9470      327.378
 155.6781      2264.41      17.3757   2539     95   0.00659904    0.0327621      16.7550      16.5785      330.013
 158.6719      2274.94      10.5299   2580    101   0.00392294    0.0166473      10.1212      17.2223      332.420
 161.6657      2281.93      6.99171   2660     87   0.00255609    0.0115688      6.79919      17.8783      334.663
 164.6595      2288.23      6.29558   2732     40   0.00225936    0.0104962      6.17257      18.5466      336.754
 167.6533      2294.17      5.94759   2834      6   0.00209601    0.0119565      5.94009      19.2271      338.745
 170.6471      2298.16      3.98384   2891      0   0.00137911    0.0103365      3.98701      19.9200      340.650
 173.6409      2302.19      4.02758   2932      0   0.00137000   0.00904171      4.01685      20.6250      342.454
 176.6348      2304.08      1.89658   2982     10  0.000634105   0.00878145      1.89090      21.3424      344.249
 179.6286      2306.62      2.54185   3007     45  0.000835563   0.00901754      2.51254      22.0720      345.947
 182.6224      2309.49      2.86552   3031     67  0.000926388   0.00912409      2.80788      22.8138      347.620
 185.6162      2312.97      3.48128   3037     98   0.00110716   0.00960888      3.36245      23.5680      349.217
 188.6100      2316.70      3.73141   3074    127   0.00116772   0.00985298      3.58957      24.3343      350.824
 191.6038      2320.16      3.45320   3090    168   0.00106364   0.00912376      3.28664      25.1130      352.362
 194.5976      2322.93      2.77602   3097    188  0.000841799   0.00885464      2.60705      25.9039      353.971
 197.5914      2327.25      4.32288   3167    186   0.00129085   0.00875588      4.08813      26.7071      355.496
 200.5852      2331.61      4.35119   3244    167   0.00127977   0.00914077      4.15158      27.5225      356.929
 203.5790      2336.44      4.83886   3356     97   0.00140212   0.00898512      4.70551      28.3502      358.338
 206.5728      2340.14      3.69644   3382    102   0.00105545   0.00886353      3.56954      29.1902      359.764
 209.5667      2344.18      4.03745   3463     92   0.00113624   0.00877424      3.93478      30.0424      361.213
 212.5605      2349.88      5.70272   3546     71   0.00158212   0.00990976      5.61019      30.9069      362.588
 215.5543      2357.71      7.82450   3555     90   0.00214040    0.0100336      7.60913      31.7836      363.821
 218.5481      2363.50      5.79693   3608    107   0.00156389   0.00964406      5.64251      32.6726      365.067
 221.5419      2367.83      4.32484   3654    107   0.00115087   0.00916774      4.20529      33.5739      366.211
 224.5357      2372.91      5.07943   3715     93   0.00133354   0.00938487      4.95410      34.4875      367.276
 227.5295      2378.35      5.44442   3811     62   0.00141042    0.0104376      5.37512      35.4132      368.275
 230.5233      2381.69      3.33692   3850     50  0.000853158   0.00925712      3.28466      36.3513      369.265
 233.5171      2385.03      3.34502   3883     81  0.000844194   0.00882445      3.27800      37.3016      370.161
 236.5109      2387.28      2.24419   3918     98  0.000559159   0.00869487      2.19078      38.2642      370.873
 239.5048      2389.80      2.51825   3938    125  0.000619553   0.00838100      2.43980      39.2391      371.525
 242.4986      2391.95      2.15069   3978    135  0.000522549   0.00857470      2.07870      40.2262      372.136
 245.4924      2394.04      2.09549   4021    131  0.000502889   0.00838955      2.02212      41.2255      372.740
 248.4862      2398.20      4.15596   4123    110  0.000985288   0.00857812      4.06234      42.2372      373.229
 251.4800      2401.39      3.19544   4160    110  0.000748496   0.00882268      3.11374      43.2611      373.696
 254.4738      2404.61      3.21455   4214    102  0.000744064   0.00841415      3.13549      44.2972      374.082
 257.4676      2406.08      1.47287   4272     88  0.000336932   0.00855443      1.43937      45.3456      374.416
 260.4614      2407.34      1.26234   4335     96  0.000285434   0.00830780      1.23736      46.4063      374.747
 263.4552      2408.98      1.64153   4357    115  0.000366933   0.00841511      1.59873      47.4793      375.023
 266.4490      2410.90      1.91267   4388    121  0.000422710   0.00855784      1.85485      48.5645      375.338
 269.4428      2412.96      2.06656   4487     95  0.000451618   0.00825863      2.02641      49.6619      375.671
 272.4367      2413.27     0.307600   4560     70  6.64788e-05   0.00833691     0.303143      50.7717      375.940
 275.4305      2414.28      1.00811   4607     63  0.000215492   0.00824015     0.992774      51.8937      376.151
 278.4243      2414.84     0.560850   4663     79  0.000118591   0.00840602     0.552989      53.0279      376.322
 281.4181      2417.13      2.28724   4702     58  0.000478460   0.00842740      2.24972      54.1744      376.498
 284.4119      2418.65      1.51740   4795     65  0.000314062   0.00855306      1.50593      55.3332      376.656
 287.4057      2419.90      1.25097   4791     72  0.000256206   0.00838821      1.22748      56.5042      376.799
 290.3995      2422.62      2.72526   4872     73  0.000552365   0.00847874      2.69112      57.6876      376.892
 293.3933      2425.55      2.92511   4918     68  0.000586791   0.00848613      2.88584      58.8831      377.047
 298.5520      2429.24      3.69316   8602     99  0.000424036   0.00848407      3.64756      60.9720      377.340
 301.5458      2431.00      1.76538   5086     25  0.000344520   0.00833635      1.75223      62.2009      377.491
 304.6893      2433.66      2.66007   5413     29  0.000489400   0.00831292      2.64912      63.5045      377.666
 307.9900      2436.32      2.65495   5729     60  0.000460305   0.00846632      2.63708      64.8879      377.922
 311.4557      2439.18      2.86097   6043     79  0.000467244   0.00837244      2.82356      66.3564      378.105
 315.0947      2441.07      1.89282   6408     92  0.000291069   0.00849558      1.86517      67.9161      378.229
 318.9156      2443.44      2.36609   6772    134  0.000342441   0.00845009      2.31901      69.5732      378.373
 322.9276      2445.66      2.22134   7158    186  0.000302450   0.00844525      2.16493      71.3347      378.538
 327.1402      2448.93      3.27218   7611    213  0.000418941   0.00826081      3.18856      73.2079      378.672
 331.5634      2451.19      2.25761   8109    198  0.000271672   0.00839357      2.20299      75.2010      378.860
 336.2078      2453.71      2.51974   8602    256  0.000284856   0.00832508      2.45033      77.3225      379.104
 341.0844      2455.29      1.58225   9165    244  0.000167959   0.00835822      1.53935      79.5818      379.333
 346.2048      2458.87      3.57957   9674    359  0.000356622   0.00834308      3.44996      81.9892      379.435
 351.5813      2463.42      4.54908  10193    512  0.000425136   0.00834359      4.33342      84.5555      379.595
 357.2266      2467.68      4.26068  10928    489  0.000373327   0.00845525      4.07972      87.2927      379.840
 363.1541      2470.59      2.90583  11773    384  0.000238594   0.00840409      2.80897      90.2136      380.151
