# All data in this file is centered around the brightness peak.

# FILENAME = J2357-32_Rsub_ss.fits / Image file name
# PIXSIZE =      0.432155 / Pixel size [arcsec]
# FLUX_UNITS = erg/cm^2/sec / Flux units
# FLUX_SCALE =    8.5929039e-16 / Flux scale [above units / (DN/sec)]
# FLUXCAL =    1 / Flux calibration complete?
# PROFTYPE = brightness / Profile type (isophote/brightness/other)
# NUMGALS =        1 / Number of sources in image
#
# GALINDEX =        1 / Source index (1 - N)
# XCENTER =       386.000 / X(center) [pixels]
# YCENTER =       1092.00 / Y(center) [pixels]
# AXERAT =       1.54903 / Axial ratio (a/b)
# PA_IMAGE =       102.356 / Position angle, counterclockwise from Up [deg]
# PA =        102.54116 / Position angle, from N towards E [deg]
# SKYLEV =  -0.000849258 / Sky level [DN/sec]
# ERR_SKY_PIXEL =    0.00624994 / Sky RMS (pixel-to-pixel) [DN/sec]
# ERR_SKY_BOX =   0.000161369 / Sky RMS (box-to-box) [DN/sec]
# FLUXRAD_S =       1021.12 / Sky aperture radius [pixels]
# FLUXRAD_F =       1021.12 / Flux aperture radius [pixels]
# FLUXRAD_C =      -999.000 / Radius where SNR=3 [pixels]
# FLUX_S =        24071.981 / Flux within sky aperture [DN/sec]
# FLUX_F =        24071.981 / Flux within flux aperture [DN/sec]
# ERR_FLUX_S_SKY =       341.243 / Uncertainty in FLUX_S due to sky [DN/sec]
# ERR_FLUX_F_SKY =       341.243 / Uncertainty in FLUX_F due to sky [DN/sec]
# ERR_FLUX_S_CONT =        32671.069 / Uncertainty in FLUX_S due to continuum [DN/sec]
# ERR_FLUX_F_CONT =        32671.069 / Uncertainty in FLUX_F due to continuum [DN/sec]
# RE_F =        280.00091 / Flux aperture half-light radius [pixels]
# ERR_RE_F_SKY =        2.0943713 / Uncertainty in RE_F due to sky [pixels]
# ERR_RE_F_CONT =        5.3799759 / Uncertainty in RE_F due to continuum [pixels]
# SE_F =      0.048866706 / Face-on surface brightness within RE_F [DN/sec/pixel]
#  a[pix]  F(interior)     dF       N(good) N(bad) SurfBright  Sigma(SB)    dF(raw)  Sigma(F,sky)  Sigma(F,cntrat)
# all Flux and Surface Brightness values are in [DN/sec]
   0.0000      0.00000      0.00000      1      0     0.863798      0.00000     0.863798      0.00000      0.00000
   6.1650      74.0454      74.0454     76      0     0.960613     0.718008      73.0066    0.0124386      133.388
  12.3299      227.959      153.913    234      0     0.665588     0.538724      155.748    0.0497543      251.356
  18.4949      356.374      128.415    388      0     0.333193     0.322780      129.279     0.111947      380.683
  24.6598      438.618      82.2446    538      0     0.152426     0.124941      82.0053     0.199017      539.230
  30.8248      516.467      77.8488    700      0     0.112217    0.0685701      78.5522     0.310964      720.806
  36.9897      606.679      90.2120    844      0     0.106395    0.0771669      89.7975     0.447789      931.075
  43.1547      701.549      94.8702    988      0    0.0946755    0.0857940      93.5394     0.609490      1168.49
  49.3196      795.528      93.9788   1164      0    0.0812810    0.0517296      94.6111     0.796068      1425.68
  55.4846      900.862      105.334   1306      0    0.0803844    0.0379122      104.982      1.00752      1696.29
  61.6495      1035.28      134.414   1468      0    0.0917785    0.0638355      134.731      1.24386      1977.24
  67.8145      1182.43      147.159   1612      0    0.0909113    0.0740108      146.549      1.50507      2268.09
  73.9794      1328.74      146.301   1786      0    0.0825217    0.0763209      147.384      1.79115      2575.53
  80.1444      1461.94      133.205   1928      0    0.0691243    0.0585732      133.272      2.10212      2897.84
  86.3093      1632.75      170.807   2082      0    0.0820715     0.109085      170.873      2.43796      3235.12
  92.4743      1802.62      169.874   2238      0    0.0759939    0.0632049      170.074      2.79868      3582.82
  98.6392      2002.71      200.086   2380      0    0.0837348     0.108469      199.289      3.18427      3934.67
 104.8042      2194.95      192.238   2548      0    0.0755747    0.0776451      192.564      3.59475      4291.68
 110.9691      2404.94      209.996   2680      0    0.0778384     0.104683      208.607      4.03010      4652.80
 117.1341      2664.18      259.243   2838      0    0.0908983     0.171054      257.969      4.49032      5022.89
 123.2990      2973.51      309.329   3034      0     0.102898     0.275055      312.193      4.97543      5399.14
 129.4640      3204.75      231.238   3162      0    0.0731688    0.0908792      231.360      5.48541      5772.41
 135.6289      3412.10      207.346   3304      0    0.0625572    0.0493820      206.689      6.02027      6144.19
 141.7939      3639.08      226.986   3484      0    0.0654390    0.0553757      227.989      6.58000      6517.87
 147.9588      3907.88      268.794   3610      0    0.0741946    0.0954616      267.842      7.16462      6891.24
 154.1238      4245.16      337.281   3784      0    0.0892990     0.125803      337.907      7.77411      7278.45
 160.2887      4537.11      291.950   3930      0    0.0742659    0.0742902      291.865      8.40847      7666.82
 166.4537      4818.76      281.653   4096      0    0.0689429    0.0883674      282.390      9.06772      8052.07
 172.6186      5133.75      314.990   4218      0    0.0742992     0.112551      313.394      9.75184      8445.89
 178.7836      5495.21      361.459   4404      2    0.0822686     0.169463      362.311      10.4608      8843.42
 184.9485      5932.87      437.661   4554      0    0.0962359     0.253476      438.258      11.1947      9247.33
 191.1135      6318.63      385.764   4698      0    0.0820432     0.133865      385.439      11.9535      9648.04
 197.2784      6717.84      399.208   4860      0    0.0822071     0.138427      399.527      12.7371      10047.6
 203.4434      7090.60      372.756   5004      0    0.0743983    0.0869870      372.289      13.5456      10444.8
 209.6083      7490.82      400.220   5159      3    0.0774951     0.111305      399.797      14.3790      10846.0
 215.7733      7875.98      385.160   5257     49    0.0724172    0.0953292      380.697      15.2372      11257.5
 221.9382      8278.93      402.947   5405     63    0.0736276     0.128195      397.957      16.1204      11667.4
 228.1032      8677.47      398.544   5566     48    0.0708278     0.138622      394.228      17.0284      12077.7
 234.2681      9016.63      339.157   5723     75    0.0586665    0.0663484      335.748      17.9613      12494.1
 240.4331      9377.32      360.688   5939     23    0.0607704     0.112661      360.915      18.9191      12919.1
 246.5980      9754.24      376.927   6063     27    0.0618987     0.157727      375.292      19.9017      13348.0
 252.7630      10084.2      329.973   6156     80    0.0528497    0.0993404      325.343      20.9092      13772.0
 258.9279      10493.3      409.120   6372     36    0.0639477     0.178450      407.475      21.9416      14196.6
 265.0929      10978.5      485.150   6546     12    0.0740470     0.251707      484.712      22.9989      14622.7
 271.2578      11431.1      452.578   6659     25    0.0674878     0.151175      449.401      24.0811      15044.9
 277.4228      11865.6      434.498   6798     60    0.0633353     0.123544      430.554      25.1881      15461.3
 283.5878      12269.2      403.639   6895    111    0.0575442     0.146337      396.767      26.3200      15879.8
 289.7527      12597.2      328.032   7013    147    0.0457598     0.116148      320.913      27.4768      16290.1
 295.9177      12864.5      267.225   7097    231    0.0364925    0.0899357      258.987      28.6585      16697.0
 302.0826      13094.3      229.864   7347    175    0.0307433    0.0462997      225.871      29.8650      17099.5
 308.2476      13330.3      236.011   7288    330    0.0309277    0.0478056      225.401      31.0964      17499.1
 314.4125      13592.9      262.541   7139    647    0.0337231    0.0581884      240.749      32.3527      17888.4
 320.5775      13879.6      286.773   7178    772    0.0361204    0.0708249      259.272      33.6339      18270.5
 326.7424      14201.7      322.021   7175    877    0.0397875    0.0919559      285.475      34.9399      18661.0
 332.9073      14505.1      303.472   7232   1026    0.0367947    0.0979850      266.099      36.2709      19054.3
 339.0723      14781.7      276.537   7131   1267    0.0329138    0.0732652      234.708      37.6267      19452.8
 345.2372      15072.7      291.043   7072   1446    0.0340162    0.0813217      240.562      39.0073      19842.2
 351.4022      15418.8      346.084   7264   1464    0.0397331     0.108869      288.621      40.4129      20235.6
 357.5672      15759.1      340.337   7328   1568    0.0383940    0.0844641      281.351      41.8433      20623.8
 363.7321      16111.6      352.469   7305   1703    0.0390828     0.127337      285.500      43.2987      21007.6
 369.8971      16448.7      337.073   7305   1873    0.0367475     0.109968      268.440      44.7789      21386.3
 376.0620      16731.6      282.892   7336   2000    0.0303309    0.0708362      222.507      46.2839      21754.0
 382.2270      16978.0      246.463   7381   2105    0.0259955    0.0614018      191.873      47.8139      22115.8
 388.3919      17220.6      242.549   7449   2177    0.0251733    0.0473371      187.516      49.3687      22473.4
 394.5569      17489.0      268.461   7530   2155    0.0274238    0.0619016      206.501      50.9484      22825.2
 400.7218      17799.5      310.447   7682   1708    0.0312212    0.0874911      239.841      52.5530      23169.9
 406.8868      18101.5      302.015   7714   1580    0.0299094    0.0614953      230.721      54.1824      23510.2
 413.0517      18426.5      324.958   7818   1476    0.0316975     0.102857      247.811      55.8367      23841.6
 419.2167      18762.5      336.029   7820   1457    0.0322920     0.119500      252.524      57.5159      24169.8
 425.3816      19034.4      271.877   7736   1554    0.0257456    0.0797874      199.168      59.2200      24480.1
 431.5466      19285.1      250.713   7703   1594    0.0233997    0.0777544      180.248      60.9490      24777.6
 437.7115      19511.4      226.309   7837   1451    0.0208225    0.0468474      163.186      62.7028      25067.5
 443.8765      19748.9      237.516   7977   1370    0.0215480    0.0599716      171.889      64.4815      25346.5
 450.0414      19984.8      235.849   8143   1247    0.0211017    0.0754465      171.831      66.2851      25615.6
 456.2064      20194.8      210.079   8288   1131    0.0185403    0.0682551      153.662      68.1136      25875.5
 462.3713      20351.3      156.504   8358   1127    0.0136267    0.0310922      113.892      69.9669      26119.2
 468.5363      20519.6      168.304   8274   1265    0.0144600    0.0296577      119.642      71.8452      26353.8
 474.7012      20772.8      253.152   8136   1456    0.0214655    0.0691903      174.644      73.7483      26582.6
 480.8662      21014.2      241.389   8037   1593    0.0202039    0.0620015      162.379      75.6762      26804.7
 487.0311      21220.7      206.481   7939   1759    0.0170620    0.0444362      135.456      77.6291      27018.6
 493.1961      21448.8      228.117   7883   1858    0.0186128    0.0576775      146.725      79.6068      27229.5
 499.3610      21679.9      231.123   7966   1812    0.0186238    0.0654789      148.357      81.6094      27434.4
 505.5260      21896.5      216.588   8099   1758    0.0172383    0.0816575      139.613      83.6369      27634.8
 511.6909      22027.5      131.043   8207   1709    0.0103034    0.0286824      84.5602      85.6893      27827.9
 517.8559      22136.9      109.354   8282   1693   0.00849512    0.0176708      70.3566      87.7665      28011.3
 524.0209      22242.5      105.651   8316   1697   0.00811027    0.0164558      67.4450      89.8687      28192.4
 530.1858      22347.2      104.626   8454   1697   0.00793774    0.0171357      67.1056      91.9957      28366.0
 536.3508      22492.2      145.007   8469   1706    0.0108741    0.0455163      92.0924      94.1475      28530.6
 542.5157      22600.9      108.672   8490   1753   0.00805624    0.0302218      68.3975      96.3243      28690.8
 548.6807      22669.5      68.6889   8613   1681   0.00503456    0.0118937      43.3627      98.5259      28841.6
 554.8456      22733.6      64.0797   8650   1692   0.00464426    0.0128257      40.1728      100.752      28988.7
 561.0106      22836.0      102.387   8567   1880   0.00733868    0.0662801      62.8705      103.004      29134.4
 567.1755      22901.8      65.8008   8475   2019   0.00466474    0.0312662      39.5337      105.280      29277.2
 573.3405      22947.6      45.8184   8245   2302   0.00321309   0.00852380      26.4919      107.581      29417.0
 579.5054      22987.3      39.6739   8119   2523   0.00275240   0.00828971      22.3467      109.907      29556.8
 585.6703      23030.1      42.8135   8047   2655   0.00293881   0.00804901      23.6486      112.258      29692.4
 591.8353      23072.8      42.6497   7991   2790   0.00289689   0.00721336      23.1490      114.634      29823.2
 598.0002      23115.4      42.6175   7907   2958   0.00286473   0.00842553      22.6514      117.034      29948.1
 604.1652      23159.9      44.5596   7876   3044   0.00296453    0.0100773      23.3486      119.460      30068.4
 610.3301      23200.4      40.5072   7905   3070   0.00266758   0.00893283      21.0872      121.910      30182.3
 616.4951      23242.3      41.8413   8075   2977   0.00272772    0.0117132      22.0264      124.386      30293.6
 622.6601      23291.3      49.0235   8342   2768   0.00316415    0.0169255      26.3953      126.886      30403.2
 628.8250      23334.6      43.2445   8541   2649   0.00276368    0.0111681      23.6046      129.411      30508.9
 634.9900      23372.8      38.2885   8707   2551   0.00242306   0.00918215      21.0976      131.961      30609.5
 641.1549      23411.9      39.0312   8948   2383   0.00244621   0.00866109      21.8887      134.536      30705.8
 647.3199      23442.6      30.6953   9245   2178   0.00190535   0.00661217      17.6150      137.135      30798.4
 653.4848      23466.6      24.0285   9381   2133   0.00147740   0.00555980      13.8595      139.760      30887.4
 659.6498      23489.1      22.5433   9552   1981   0.00137304   0.00531113      13.1153      142.409      30971.6
 665.8147      23512.0      22.8272   9782   1829   0.00137743   0.00542687      13.4740      145.083      31051.3
 671.9797      23533.8      21.8743  10002   1678   0.00130774   0.00553594      13.0800      147.783      31127.6
 678.1446      23554.8      20.9500  10158   1628   0.00124106   0.00505768      12.6067      150.507      31201.2
 684.3096      23577.8      23.0184  10310   1508   0.00135124   0.00520798      13.9313      153.256      31268.9
 690.4745      23601.1      23.3219  10483   1420   0.00135679   0.00634719      14.2232      156.029      31334.4
 696.6395      23631.4      30.2522  10569   1416   0.00174431    0.0112164      18.4356      158.828      31397.3
 702.8044      23665.0      33.6231  10606   1456   0.00192159    0.0101736      20.3803      161.652      31455.8
 708.9694      23687.1      22.1357  10693   1466   0.00125404   0.00598506      13.4094      164.500      31512.8
 715.1343      23709.8      22.6518  10715   1484   0.00127216   0.00508556      13.6312      167.373      31569.4
 721.2993      23727.3      17.5222  10719   1594  0.000975630   0.00512572      10.4578      170.272      31622.1
 727.4642      23744.5      17.1563  10674   1660  0.000947125   0.00556504      10.1096      173.195      31672.8
 733.6292      23760.1      15.6690  10635   1781  0.000857721   0.00562890      9.12187      176.143      31720.9
 739.7941      23772.8      12.6371  10614   1873  0.000685962   0.00554734      7.28080      179.115      31765.6
 745.9590      23785.7      12.8918  10561   2007  0.000693986   0.00542280      7.32919      182.113      31807.5
 752.1240      23799.8      14.1419  10584   2046  0.000755002   0.00532501      7.99094      185.136      31847.8
 758.2890      23813.0      13.1857  10761   1960  0.000698217   0.00568234      7.51351      188.183      31886.9
 764.4540      23822.0      8.96324  10909   1899  0.000470781   0.00605487      5.13574      191.255      31924.5
 770.6189      23829.3      7.36967  10990   1910  0.000383972   0.00667274      4.21985      194.353      31960.5
 776.7839      23838.7      9.38093  11107   1834  0.000484868   0.00686653      5.38542      197.475      31994.6
 782.9489      23847.1      8.41724  11264   1734  0.000431616   0.00709839      4.86172      200.622      32026.3
 789.1138      23854.7      7.57303  11558   1560  0.000385284   0.00765996      4.45311      203.794      32055.7
 795.2787      23863.3      8.60030  11719   1454  0.000434140   0.00769692      5.08768      206.990      32084.0
 801.4437      23871.7      8.36282  11664   1527  0.000418897   0.00764179      4.88602      210.212      32111.9
 807.6086      23878.8      7.11778  11687   1621  0.000353794   0.00721074      4.13479      213.458      32140.4
 813.7736      23886.9      8.10058  11803   1587  0.000399590   0.00725990      4.71637      216.730      32167.4
 819.9385      23897.6      10.6891  11862   1586  0.000523291   0.00722100      6.20727      220.026      32192.2
 826.1035      23905.1      7.48733  11962   1622  0.000363805   0.00718356      4.35183      223.347      32215.8
 832.2684      23912.9      7.87110  11930   1704  0.000379606   0.00729189      4.52870      226.693      32236.8
 838.4333      23922.4      9.45769  11806   1891  0.000452761   0.00708803      5.34530      230.064      32256.9
 844.5983      23928.6      6.24716  11762   1999  0.000296871   0.00724947      3.49180      233.459      32278.1
 850.7632      23934.2      5.60924  11825   2018  0.000264621   0.00716051      3.12915      236.880      32297.4
 856.9282      23939.0      4.73794  11921   1988  0.000221900   0.00686778      2.64527      240.326      32316.6
 863.0932      23945.6      6.61321  12118   1862  0.000307509   0.00649935      3.72639      243.796      32334.3
 869.2581      23952.8      7.24427  12272   1789  0.000334457   0.00646488      4.10445      247.291      32350.5
 875.4231      23960.9      8.07269  12476   1632  0.000370068   0.00647428      4.61696      250.811      32367.6
 881.5880      23968.0      7.09400  12676   1557  0.000322923   0.00648364      4.09337      254.356      32385.8
 887.7530      23975.6      7.58096  12846   1463  0.000342682   0.00621241      4.40210      257.926      32403.5
 893.9179      23984.2      8.60014  13010   1370  0.000386065   0.00691054      5.02270      261.521      32419.0
 900.0829      23990.0      5.79058  13184   1220  0.000258154   0.00694748      3.40350      265.141      32431.6
 906.2478      23994.8      4.82234  13303   1253  0.000213522   0.00701976      2.84048      268.785      32444.0
 912.4128      23998.5      3.70675  13404   1184  0.000163012   0.00759428      2.18501      272.454      32456.7
 918.5777      24000.2      1.73350  13467   1193  7.57219e-05   0.00755130      1.01975      276.149      32470.0
 924.7427      24004.4      4.15741  13430   1293  0.000180385   0.00659262      2.42257      279.868      32482.9
 930.9077      24013.1      8.65206  13349   1496  0.000372908   0.00589686      4.97795      283.612      32498.1
 937.0726      24019.3      6.25437  13048   1842  0.000267789   0.00544055      3.49411      287.381      32511.3
 943.2375      24031.3      11.9932  12804   2199  0.000510134   0.00514235      6.53176      291.174      32524.3
 949.4025      24040.3      9.00147  12706   2340  0.000380390   0.00505945      4.83323      294.993      32539.8
 955.5674      24047.1      6.74886  12679   2418  0.000283347   0.00479146      3.59256      298.837      32552.3
 961.7324      24053.0      5.95819  12750   2467  0.000248547   0.00511400      3.16897      302.705      32567.2
 967.8973      24058.7      5.65728  12888   2364  0.000234483   0.00590796      3.02202      306.598      32581.9
 974.0623      24060.6      1.89410  13176   2177  7.80090e-05   0.00649387      1.02785      310.516      32595.0
 980.2272      24062.2      1.64190  13535   1878  6.71953e-05   0.00702137     0.909488      314.459      32605.8
 986.3922      24062.5     0.325005  13887   1620  1.32176e-05   0.00740469     0.183553      318.427      32616.7
 992.5571      24063.7      1.15944  14132   1398  4.68590e-05   0.00713297     0.662211      322.420      32627.7
 998.7220      24066.0      2.27176  14277   1438  9.12460e-05   0.00712854      1.30272      326.438      32636.5
1004.8870      24066.9     0.918938  14221   1537  3.66819e-05   0.00756483     0.521653      330.480      32646.8
1011.0520      24068.7      1.83483  14208   1565  7.27940e-05   0.00723735      1.03426      334.548      32658.8
1021.1190      24072.0      3.26656  23544   2369  7.87301e-05   0.00714103      1.85362      341.243      32671.1
1027.2841      24074.2      2.24082  14514   1569  8.74919e-05   0.00693903      1.26986      345.376      32678.2
1033.7572      24075.6      1.34881  14981   1913  4.98492e-05   0.00649335     0.746790      349.742      32687.6
1040.5541      24076.1     0.522854  15657   2092  1.82855e-05   0.00667743     0.286296      354.357      32698.9
1047.6908      24080.8      4.74838  16811   2072  0.000157100   0.00645143      2.64101      359.234      32706.8
1055.1843      24086.0      5.16446  17692   2119  0.000161598   0.00626451      2.85898      364.391      32713.4
1063.0525      24093.2      7.14823  18908   2043  0.000211475   0.00640901      3.99857      369.846      32719.5
1071.3141      24097.5      4.31528  20487   1747  0.000120666   0.00629967      2.47209      375.617      32727.8
1079.9888      24104.2      6.70637  21593   1824  0.000177190   0.00601838      3.82606      381.724      32737.9
1089.0973      24109.4      5.25709  22922   1832  0.000131200   0.00570308      3.00737      388.190      32746.1
1098.6611      24114.6      5.14054  23897   2239  0.000121140   0.00546322      2.89488      395.038      32759.1
1108.7031      24119.1      4.49097  24768   2915  9.98978e-05   0.00547996      2.47427      402.292      32768.9
1119.2473      24127.9      8.87800  25830   3460  0.000186339   0.00538187      4.81315      409.981      32779.9
1130.3186      24134.1      6.12570  26746   4207  0.000121275   0.00533831      3.24361      418.132      32792.3
1141.9435      24140.2      6.15805  27888   4929  0.000114949   0.00516615      3.20569      426.776      32808.5
1154.1498      24149.4      9.13088  29432   5253  0.000160638   0.00511024      4.72789      435.949      32825.6
1166.9662      24160.4      11.0027  31594   5194  0.000182368   0.00523040      5.76174      445.685      32853.4
1180.4236      24169.7      9.35009  33830   5152  0.000145942   0.00563297      4.93721      456.023      32875.2
1194.5537      24162.3     -7.44363  36581   4757 -0.000109367   0.00665136     -4.00076      467.006      32893.5
1209.3905      24159.0     -3.25481  38869   4931 -4.49961e-05   0.00684718     -1.74895      478.679      32909.9
1224.9689      24152.7     -6.29779  41713   4751 -8.18818e-05   0.00675260     -3.41553      491.090      32927.2
1241.3263      24148.2     -4.47489  43571   5749 -5.46932e-05   0.00656230     -2.38304      504.293      32942.8
